Abs	Wavelength
-0.097	200
-0.096	205
-0.11	210
-0.109	215
-0.102	220
-0.129	225
-0.314	230
-0.506	235
-0.486	240
-0.433	245
-0.521	250
-0.485	255
-0.322	260
-0.283	265
-0.24	270
-0.2	275
-0.206	280
-0.205	285
-0.233	290
-0.253	295
-0.305	300
-0.266	305
-0.15	310
-0.084	315
-0.02	320
0.025	325
0.03	330
0.062	335
0.088	340
0.109	345
0.102	350
0.112	355
0.054	360
-0.023	365
0.042	370
0.121	375
0.049	380
0.017	385
0.011	390
-0.02	395
0.177	400
0.194	405
0.173	410
0.177	415
0.118	420
-0.003	425
-0.035	430
0.021	435
0.028	440
-0.026	445
-0.081	450
-0.077	455
-0.059	460
-0.042	465
0.036	470
0.114	475
0.127	480
-0.001	485
-0.062	490
0.06	495
0.207	500
0.292	505
0.316	510
0.308	515
0.291	520
0.26	525
0.161	530
0.132	535
0.192	540
0.209	545
0.292	550
0.404	555
0.523	560
0.506	565
0.466	570
0.442	575
0.467	580
0.532	585
0.548	590
0.53	595
0.505	600
0.501	605
0.49	610
0.523	615
0.58	620
0.598	625
0.577	630
0.591	635
0.618	640
0.648	645
0.658	650
0.644	655
0.617	660
0.613	665
0.652	670
0.653	675
0.591	680
0.5	685
0.479	690
0.495	695
0.505	700
0.55	705
0.644	710
0.673	715
0.69	720
0.736	725
0.746	730
0.741	735
0.765	740
0.797	745
0.815	750
0.821	755
0.815	760
0.793	765
0.801	770
0.852	775
0.895	780
0.903	785
0.898	790
0.887	795
0.88	800
0.879	805
0.883	810
0.876	815
0.708	820
0.513	825
0.449	830
0.535	835
0.684	840
0.812	845
0.934	850
0.997	855
1.009	860
0.993	865
0.964	870
0.879	875
0.615	880
0.421	885
0.438	890
0.589	895
0.65	900
