Abs	Wavelength
-0.094	200
-0.092	205
-0.109	210
-0.107	215
-0.099	220
-0.128	225
-0.313	230
-0.505	235
-0.484	240
-0.431	245
-0.521	250
-0.485	255
-0.323	260
-0.283	265
-0.24	270
-0.2	275
-0.205	280
-0.206	285
-0.233	290
-0.251	295
-0.303	300
-0.266	305
-0.15	310
-0.082	315
-0.02	320
0.027	325
0.03	330
0.063	335
0.089	340
0.109	345
0.102	350
0.113	355
0.055	360
-0.022	365
0.043	370
0.122	375
0.049	380
0.018	385
0.012	390
-0.019	395
0.177	400
0.194	405
0.174	410
0.178	415
0.118	420
-0.002	425
-0.035	430
0.021	435
0.028	440
-0.025	445
-0.081	450
-0.077	455
-0.058	460
-0.042	465
0.037	470
0.114	475
0.127	480
-0.0	485
-0.062	490
0.059	495
0.207	500
0.292	505
0.316	510
0.308	515
0.291	520
0.261	525
0.161	530
0.132	535
0.193	540
0.209	545
0.291	550
0.402	555
0.522	560
0.505	565
0.465	570
0.441	575
0.467	580
0.531	585
0.547	590
0.53	595
0.505	600
0.501	605
0.489	610
0.522	615
0.58	620
0.598	625
0.578	630
0.591	635
0.619	640
0.649	645
0.657	650
0.644	655
0.616	660
0.614	665
0.653	670
0.654	675
0.591	680
0.5	685
0.48	690
0.496	695
0.506	700
0.55	705
0.644	710
0.672	715
0.691	720
0.736	725
0.747	730
0.741	735
0.764	740
0.797	745
0.815	750
0.822	755
0.815	760
0.794	765
0.801	770
0.852	775
0.895	780
0.904	785
0.899	790
0.887	795
0.879	800
0.88	805
0.883	810
0.877	815
0.709	820
0.512	825
0.448	830
0.533	835
0.684	840
0.814	845
0.933	850
0.997	855
1.01	860
0.992	865
0.965	870
0.879	875
0.616	880
0.423	885
0.441	890
0.591	895
0.649	900
